% Data of Hall-Effect Measurement
% Version Information: Version 1.05 (2001/3/1)
% Original file: F:\WebSite\FCCSWin\Example\3C-SiC\3CSiC32.nT
% Experimental data file: F:\WebSite\FCCSWin\Example\3C-SiC\n3CSiC1.nT
% Name of measurement: Matsuura Loboratory
% Date of measurement: 2000/7/3
% Name of analysis: Matsuura Laboratory
% Date of Analysis: 2001/3/12
% Sample number: n3CSiC1
% Semiconductor: 3C-SiC
% Conduction type: n-type
% Sample thickness [micron]: 32
% Magnetic Field [T]: 0.5
% Current [A]: 0.001
% Number of data: 82
% Experimental Data
% Temperature [K]   Majority-Carrier Concentration [cm^-3]   Reliability   
82.719     3.168e+16     1
85.522     3.278e+16     1
91.122     3.547e+16     1
97.035     3.848e+16     1
100.273     4.017e+16     1
105.303     4.281e+16     1
110.139     4.533e+16     1
115.837     4.834e+16     1
120.218     5.061e+16     1
125.515     5.354e+16     1
130.038     5.593e+16     1
135.071     5.861e+16     1
140.399     6.135e+16     1
145.361     6.415e+16     1
150.014     6.65e+16     1
155.209     6.917e+16     1
159.875     7.171e+16     1
165.319     7.453e+16     1
170.074     7.699e+16     1
175.075     7.97e+16     1
180.004     8.244e+16     1
184.996     8.498e+16     1
190.127     8.759e+16     1
195.077     8.993e+16     1
199.994     9.261e+16     1
204.978     9.504e+16     1
209.993     9.738e+16     1
214.718     9.961e+16     1
220.036     1.017e+17     1
224.935     1.036e+17     1
229.964     1.051e+17     1
235.011     1.089e+17     1
239.937     1.116e+17     1
244.851     1.138e+17     1
250.038     1.174e+17     1
255.272     1.201e+17     1
259.925     1.225e+17     1
265.024     1.245e+17     1
269.983     1.269e+17     1
275.054     1.293e+17     1
280.262     1.324e+17     1
285.271     1.374e+17     1
290.039     1.392e+17     1
295.014     1.418e+17     1
300.163     1.446e+17     1
305.062     1.476e+17     1
310.128     1.498e+17     1
315.051     1.524e+17     1
320.196     1.539e+17     1
324.978     1.562e+17     1
329.904     1.58e+17     1
335.259     1.605e+17     1
340.072     1.623e+17     1
345.05     1.633e+17     1
350.442     1.664e+17     1
355.339     1.681e+17     1
359.934     1.69e+17     1
365.194     1.714e+17     1
369.901     1.728e+17     1
375.752     1.751e+17     1
380.163     1.767e+17     1
385.031     1.779e+17     1
390.033     1.791e+17     1
395.022     1.807e+17     1
399.983     1.826e+17     1
405.062     1.842e+17     1
410.007     1.849e+17     1
416.112     1.863e+17     1
420.2     1.876e+17     1
425.18     1.901e+17     1
429.947     1.898e+17     1
435.089     1.873e+17     1
440.187     1.928e+17     1
449.915     1.954e+17     1
454.013     1.976e+17     1
460.103     1.991e+17     1
464.967     1.997e+17     1
469.909     2.005e+17     1
475.24     2.023e+17     1
480.113     2.033e+17     1
485.116     2.032e+17     1
490.172     2.036e+17     1
